 set term postscript eps enhanced color
 set output '12C_on_28Si_bf.eps'
 set title 'Differential cross section'
 set xlabel '{/Symbol q}_{cm} (degree)'
 set ylabel '(d{/Symbol s} / d{/Symbol W}) / (d{/Symbol s}_c / d{/Symbol W})'
 set label '^{12}C + ^{28}Si' at 20, 0.7
 set label 'E_{lab} = 131.5 MeV' at 20,0.2
 unset key
 set size 0.8, 0.8
 set logscale y
 set xrange[0:50]
 set yrange[0.000001:2]
 set format y "10^{%L}"
 set size ratio 1.5
 plot 'experiment.dat'using 1:2:($2*$3/100.0) \
  with yerrorbars 12,'-' with line 1
    0.200   0.99964792
    0.400   0.99929463
    0.600   1.00182342
    0.800   1.00150067
    1.000   0.99149719
    1.200   0.99732487
    1.400   1.01256537
    1.600   1.01763057
    1.800   1.00705419
    2.000   0.98899918
    2.200   0.97398534
    2.400   0.96774981
    2.600   0.97057595
    2.800   0.97986153
    3.000   0.99277731
    3.200   1.00762864
    3.400   1.02392436
    3.600   1.04174356
    3.800   1.06100207
    4.000   1.08098544
    4.200   1.10025770
    4.400   1.11687886
    4.600   1.12878540
    4.800   1.13418586
    5.000   1.13186391
    5.200   1.12133565
    5.400   1.10285613
    5.600   1.07730414
    5.800   1.04599079
    6.000   1.01044023
    6.200   0.97218315
    6.400   0.93259136
    6.600   0.89276808
    6.800   0.85349642
    7.000   0.81523944
    7.200   0.77817985
    7.400   0.74228492
    7.600   0.70738265
    7.800   0.67323716
    8.000   0.63961432
    8.200   0.60633194
    8.400   0.57329173
    8.600   0.54049320
    8.800   0.50803128
    9.000   0.47608111
    9.200   0.44487395
    9.400   0.41466846
    9.600   0.38572143
    9.800   0.35826124
   10.000   0.33246682
   10.200   0.30845351
   10.400   0.28626684
   10.600   0.26588361
   10.800   0.24721964
   11.000   0.23014222
   11.200   0.21448573
   11.400   0.20006815
   11.600   0.18670690
   11.800   0.17423220
   12.000   0.16249735
   12.200   0.15138498
   12.400   0.14080959
   12.600   0.13071663
   12.800   0.12107876
   13.000   0.11189040
   13.200   0.10316118
   13.400   0.09490936
   13.600   0.08715577
   13.800   0.07991878
   14.000   0.07321046
   14.200   0.06703427
   14.400   0.06138380
   14.600   0.05624275
   14.800   0.05158574
   15.000   0.04737967
   15.200   0.04358560
   15.400   0.04016076
   15.600   0.03706065
   15.800   0.03424109
   16.000   0.03166005
   16.200   0.02927931
   16.400   0.02706567
   16.600   0.02499186
   16.800   0.02303698
   17.000   0.02118643
   17.200   0.01943151
   17.400   0.01776852
   17.600   0.01619767
   17.800   0.01472174
   18.000   0.01334473
   18.200   0.01207059
   18.400   0.01090215
   18.600   0.00984036
   18.800   0.00888379
   19.000   0.00802858
   19.200   0.00726857
   19.400   0.00659579
   19.600   0.00600100
   19.800   0.00547437
   20.000   0.00500606
   20.200   0.00458680
   20.400   0.00420827
   20.600   0.00386332
   20.800   0.00354613
   21.000   0.00325213
   21.200   0.00297790
   21.400   0.00272099
   21.600   0.00247971
   21.800   0.00225298
   22.000   0.00204012
   22.200   0.00184077
   22.400   0.00165475
   22.600   0.00148203
   22.800   0.00132263
   23.000   0.00117662
   23.200   0.00104399
   23.400   0.00092470
   23.600   0.00081850
   23.800   0.00072500
   24.000   0.00064355
   24.200   0.00057327
   24.400   0.00051306
   24.600   0.00046163
   24.800   0.00041760
   25.000   0.00037955
   25.200   0.00034614
   25.400   0.00031616
   25.600   0.00028860
   25.800   0.00026272
   26.000   0.00023802
   26.200   0.00021426
   26.400   0.00019138
   26.600   0.00016949
   26.800   0.00014877
   27.000   0.00012945
   27.200   0.00011173
   27.400   0.00009575
   27.600   0.00008160
   27.800   0.00006926
   28.000   0.00005867
   28.200   0.00004968
   28.400   0.00004214
   28.600   0.00003584
   28.800   0.00003061
   29.000   0.00002628
   29.200   0.00002269
   29.400   0.00001972
   29.600   0.00001727
   29.800   0.00001524
   30.000   0.00001356
   30.200   0.00001216
   30.400   0.00001097
   30.600   0.00000991
   30.800   0.00000894
   31.000   0.00000799
   31.200   0.00000704
   31.400   0.00000605
   31.600   0.00000505
   31.800   0.00000404
   32.000   0.00000307
   32.200   0.00000219
   32.400   0.00000143
   32.600   0.00000084
   32.800   0.00000044
   33.000   0.00000023
   33.200   0.00000018
   33.400   0.00000028
   33.600   0.00000046
   33.800   0.00000069
   34.000   0.00000091
   34.200   0.00000110
   34.400   0.00000124
   34.600   0.00000130
   34.800   0.00000131
   35.000   0.00000126
   35.200   0.00000118
   35.400   0.00000109
   35.600   0.00000100
   35.800   0.00000092
   36.000   0.00000087
   36.200   0.00000084
   36.400   0.00000084
   36.600   0.00000085
   36.800   0.00000089
   37.000   0.00000094
   37.200   0.00000100
   37.400   0.00000107
   37.600   0.00000116
   37.800   0.00000127
   38.000   0.00000140
   38.200   0.00000157
   38.400   0.00000179
   38.600   0.00000204
   38.800   0.00000234
   39.000   0.00000268
   39.200   0.00000303
   39.400   0.00000337
   39.600   0.00000369
   39.800   0.00000395
   40.000   0.00000413
   40.200   0.00000421
   40.400   0.00000420
   40.600   0.00000409
   40.800   0.00000390
   41.000   0.00000366
   41.200   0.00000339
   41.400   0.00000313
   41.600   0.00000290
   41.800   0.00000272
   42.000   0.00000260
   42.200   0.00000254
   42.400   0.00000252
   42.600   0.00000255
   42.800   0.00000259
   43.000   0.00000263
   43.200   0.00000265
   43.400   0.00000265
   43.600   0.00000262
   43.800   0.00000256
   44.000   0.00000248
   44.200   0.00000239
   44.400   0.00000229
   44.600   0.00000220
   44.800   0.00000212
   45.000   0.00000207
   45.200   0.00000206
   45.400   0.00000207
   45.600   0.00000211
   45.800   0.00000217
   46.000   0.00000224
   46.200   0.00000230
   46.400   0.00000233
   46.600   0.00000233
   46.800   0.00000228
   47.000   0.00000219
   47.200   0.00000207
   47.400   0.00000192
   47.600   0.00000177
   47.800   0.00000164
   48.000   0.00000154
   48.200   0.00000151
   48.400   0.00000153
   48.600   0.00000161
   48.800   0.00000174
   49.000   0.00000190
   49.200   0.00000207
   49.400   0.00000222
   49.600   0.00000232
   49.800   0.00000238
   50.000   0.00000238
   50.200   0.00000232
   50.400   0.00000222
   50.600   0.00000209
   50.800   0.00000194
   51.000   0.00000180
   51.200   0.00000168
   51.400   0.00000159
   51.600   0.00000154
   51.800   0.00000153
   52.000   0.00000156
   52.200   0.00000162
   52.400   0.00000170
   52.600   0.00000178
   52.800   0.00000187
   53.000   0.00000194
   53.200   0.00000198
   53.400   0.00000200
   53.600   0.00000198
   53.800   0.00000192
   54.000   0.00000184
   54.200   0.00000174
   54.400   0.00000164
   54.600   0.00000155
   54.800   0.00000148
   55.000   0.00000145
   55.200   0.00000145
   55.400   0.00000148
   55.600   0.00000153
   55.800   0.00000158
   56.000   0.00000162
   56.200   0.00000163
   56.400   0.00000160
   56.600   0.00000153
   56.800   0.00000142
   57.000   0.00000127
   57.200   0.00000110
   57.400   0.00000093
   57.600   0.00000076
   57.800   0.00000062
   58.000   0.00000051
   58.200   0.00000043
   58.400   0.00000038
   58.600   0.00000036
   58.800   0.00000037
   59.000   0.00000038
   59.200   0.00000041
   59.400   0.00000044
   59.600   0.00000047
   59.800   0.00000050
   60.000   0.00000053
   60.200   0.00000056
   60.400   0.00000058
   60.600   0.00000060
   60.800   0.00000062
   61.000   0.00000065
   61.200   0.00000068
   61.400   0.00000073
   61.600   0.00000079
   61.800   0.00000086
   62.000   0.00000096
   62.200   0.00000108
   62.400   0.00000121
   62.600   0.00000135
   62.800   0.00000149
   63.000   0.00000162
   63.200   0.00000173
   63.400   0.00000181
   63.600   0.00000185
   63.800   0.00000185
   64.000   0.00000181
   64.200   0.00000173
   64.400   0.00000162
   64.600   0.00000148
   64.800   0.00000133
   65.000   0.00000118
   65.200   0.00000104
   65.400   0.00000092
   65.600   0.00000081
   65.800   0.00000073
   66.000   0.00000067
   66.200   0.00000063
   66.400   0.00000061
   66.600   0.00000060
   66.800   0.00000060
   67.000   0.00000060
   67.200   0.00000061
   67.400   0.00000061
   67.600   0.00000061
   67.800   0.00000060
   68.000   0.00000058
   68.200   0.00000055
   68.400   0.00000050
   68.600   0.00000045
   68.800   0.00000038
   69.000   0.00000031
   69.200   0.00000025
   69.400   0.00000021
   69.600   0.00000018
   69.800   0.00000017
   70.000   0.00000019
   70.200   0.00000022
   70.400   0.00000027
   70.600   0.00000032
   70.800   0.00000037
   71.000   0.00000040
   71.200   0.00000041
   71.400   0.00000041
   71.600   0.00000040
   71.800   0.00000037
   72.000   0.00000035
   72.200   0.00000033
   72.400   0.00000033
   72.600   0.00000035
   72.800   0.00000039
   73.000   0.00000046
   73.200   0.00000054
   73.400   0.00000063
   73.600   0.00000072
   73.800   0.00000080
   74.000   0.00000088
   74.200   0.00000093
   74.400   0.00000096
   74.600   0.00000097
   74.800   0.00000096
   75.000   0.00000094
   75.200   0.00000090
   75.400   0.00000085
   75.600   0.00000080
   75.800   0.00000075
   76.000   0.00000071
   76.200   0.00000068
   76.400   0.00000065
   76.600   0.00000063
   76.800   0.00000063
   77.000   0.00000063
   77.200   0.00000065
   77.400   0.00000067
   77.600   0.00000071
   77.800   0.00000075
   78.000   0.00000079
   78.200   0.00000084
   78.400   0.00000089
   78.600   0.00000093
   78.800   0.00000096
   79.000   0.00000099
   79.200   0.00000099
   79.400   0.00000097
   79.600   0.00000094
   79.800   0.00000088
   80.000   0.00000079
   80.200   0.00000069
   80.400   0.00000058
   80.600   0.00000046
   80.800   0.00000035
   81.000   0.00000025
   81.200   0.00000017
   81.400   0.00000011
   81.600   0.00000007
   81.800   0.00000005
   82.000   0.00000005
   82.200   0.00000006
   82.400   0.00000007
   82.600   0.00000007
   82.800   0.00000007
   83.000   0.00000007
   83.200   0.00000006
   83.400   0.00000004
   83.600   0.00000003
   83.800   0.00000002
   84.000   0.00000002
   84.200   0.00000002
   84.400   0.00000003
   84.600   0.00000004
   84.800   0.00000006
   85.000   0.00000008
   85.200   0.00000010
   85.400   0.00000013
   85.600   0.00000016
   85.800   0.00000021
   86.000   0.00000026
   86.200   0.00000033
   86.400   0.00000040
   86.600   0.00000047
   86.800   0.00000055
   87.000   0.00000063
   87.200   0.00000070
   87.400   0.00000077
   87.600   0.00000082
   87.800   0.00000087
   88.000   0.00000091
   88.200   0.00000094
   88.400   0.00000096
   88.600   0.00000098
   88.800   0.00000099
   89.000   0.00000099
   89.200   0.00000099
   89.400   0.00000099
   89.600   0.00000098
   89.800   0.00000097
   90.000   0.00000096
   90.200   0.00000095
   90.400   0.00000094
   90.600   0.00000094
   90.800   0.00000093
   91.000   0.00000092
   91.200   0.00000092
   91.400   0.00000091
   91.600   0.00000089
   91.800   0.00000087
   92.000   0.00000083
   92.200   0.00000079
   92.400   0.00000073
   92.600   0.00000067
   92.800   0.00000060
   93.000   0.00000053
   93.200   0.00000046
   93.400   0.00000039
   93.600   0.00000034
   93.800   0.00000029
   94.000   0.00000025
   94.200   0.00000022
   94.400   0.00000019
   94.600   0.00000017
   94.800   0.00000015
   95.000   0.00000014
   95.200   0.00000013
   95.400   0.00000012
   95.600   0.00000011
   95.800   0.00000011
   96.000   0.00000011
   96.200   0.00000010
   96.400   0.00000010
   96.600   0.00000009
   96.800   0.00000008
   97.000   0.00000007
   97.200   0.00000005
   97.400   0.00000003
   97.600   0.00000002
   97.800   0.00000000
   98.000   0.00000000
   98.200   0.00000001
   98.400   0.00000002
   98.600   0.00000005
   98.800   0.00000008
   99.000   0.00000013
   99.200   0.00000019
   99.400   0.00000025
   99.600   0.00000032
   99.800   0.00000040
  100.000   0.00000048
  100.200   0.00000056
  100.400   0.00000065
  100.600   0.00000073
  100.800   0.00000081
  101.000   0.00000088
  101.200   0.00000094
  101.400   0.00000098
  101.600   0.00000100
  101.800   0.00000101
  102.000   0.00000101
  102.200   0.00000098
  102.400   0.00000095
  102.600   0.00000091
  102.800   0.00000087
  103.000   0.00000082
  103.200   0.00000077
  103.400   0.00000074
  103.600   0.00000070
  103.800   0.00000068
  104.000   0.00000066
  104.200   0.00000065
  104.400   0.00000065
  104.600   0.00000065
  104.800   0.00000065
  105.000   0.00000065
  105.200   0.00000066
  105.400   0.00000067
  105.600   0.00000068
  105.800   0.00000070
  106.000   0.00000073
  106.200   0.00000075
  106.400   0.00000079
  106.600   0.00000082
  106.800   0.00000086
  107.000   0.00000090
  107.200   0.00000095
  107.400   0.00000099
  107.600   0.00000103
  107.800   0.00000106
  108.000   0.00000108
  108.200   0.00000110
  108.400   0.00000110
  108.600   0.00000107
  108.800   0.00000103
  109.000   0.00000097
  109.200   0.00000089
  109.400   0.00000080
  109.600   0.00000070
  109.800   0.00000059
  110.000   0.00000049
  110.200   0.00000040
  110.400   0.00000031
  110.600   0.00000024
  110.800   0.00000019
  111.000   0.00000014
  111.200   0.00000011
  111.400   0.00000008
  111.600   0.00000007
  111.800   0.00000006
  112.000   0.00000005
  112.200   0.00000004
  112.400   0.00000004
  112.600   0.00000005
  112.800   0.00000006
  113.000   0.00000007
  113.200   0.00000009
  113.400   0.00000011
  113.600   0.00000014
  113.800   0.00000017
  114.000   0.00000021
  114.200   0.00000026
  114.400   0.00000030
  114.600   0.00000034
  114.800   0.00000038
  115.000   0.00000041
  115.200   0.00000045
  115.400   0.00000047
  115.600   0.00000050
  115.800   0.00000052
  116.000   0.00000054
  116.200   0.00000055
  116.400   0.00000057
  116.600   0.00000057
  116.800   0.00000057
  117.000   0.00000056
  117.200   0.00000055
  117.400   0.00000053
  117.600   0.00000051
  117.800   0.00000050
  118.000   0.00000049
  118.200   0.00000048
  118.400   0.00000048
  118.600   0.00000049
  118.800   0.00000051
  119.000   0.00000053
  119.200   0.00000056
  119.400   0.00000059
  119.600   0.00000063
  119.800   0.00000067
  120.000   0.00000072
  120.200   0.00000077
  120.400   0.00000082
  120.600   0.00000089
  120.800   0.00000095
  121.000   0.00000102
  121.200   0.00000109
  121.400   0.00000115
  121.600   0.00000121
  121.800   0.00000127
  122.000   0.00000132
  122.200   0.00000137
  122.400   0.00000140
  122.600   0.00000144
  122.800   0.00000146
  123.000   0.00000149
  123.200   0.00000151
  123.400   0.00000153
  123.600   0.00000155
  123.800   0.00000157
  124.000   0.00000158
  124.200   0.00000160
  124.400   0.00000160
  124.600   0.00000159
  124.800   0.00000157
  125.000   0.00000152
  125.200   0.00000145
  125.400   0.00000137
  125.600   0.00000127
  125.800   0.00000116
  126.000   0.00000105
  126.200   0.00000094
  126.400   0.00000084
  126.600   0.00000075
  126.800   0.00000067
  127.000   0.00000061
  127.200   0.00000056
  127.400   0.00000052
  127.600   0.00000050
  127.800   0.00000048
  128.000   0.00000047
  128.200   0.00000047
  128.400   0.00000047
  128.600   0.00000047
  128.800   0.00000047
  129.000   0.00000046
  129.200   0.00000046
  129.400   0.00000045
  129.600   0.00000045
  129.800   0.00000045
  130.000   0.00000045
  130.200   0.00000045
  130.400   0.00000046
  130.600   0.00000047
  130.800   0.00000049
  131.000   0.00000051
  131.200   0.00000053
  131.400   0.00000055
  131.600   0.00000057
  131.800   0.00000060
  132.000   0.00000063
  132.200   0.00000066
  132.400   0.00000069
  132.600   0.00000071
  132.800   0.00000072
  133.000   0.00000073
  133.200   0.00000071
  133.400   0.00000069
  133.600   0.00000066
  133.800   0.00000061
  134.000   0.00000056
  134.200   0.00000051
  134.400   0.00000046
  134.600   0.00000042
  134.800   0.00000038
  135.000   0.00000035
  135.200   0.00000032
  135.400   0.00000031
  135.600   0.00000029
  135.800   0.00000028
  136.000   0.00000028
  136.200   0.00000028
  136.400   0.00000027
  136.600   0.00000027
  136.800   0.00000027
  137.000   0.00000027
  137.200   0.00000026
  137.400   0.00000026
  137.600   0.00000027
  137.800   0.00000028
  138.000   0.00000030
  138.200   0.00000033
  138.400   0.00000037
  138.600   0.00000042
  138.800   0.00000047
  139.000   0.00000053
  139.200   0.00000058
  139.400   0.00000064
  139.600   0.00000069
  139.800   0.00000074
  140.000   0.00000079
  140.200   0.00000085
  140.400   0.00000091
  140.600   0.00000097
  140.800   0.00000104
  141.000   0.00000110
  141.200   0.00000117
  141.400   0.00000124
  141.600   0.00000130
  141.800   0.00000136
  142.000   0.00000141
  142.200   0.00000146
  142.400   0.00000150
  142.600   0.00000154
  142.800   0.00000158
  143.000   0.00000161
  143.200   0.00000163
  143.400   0.00000165
  143.600   0.00000168
  143.800   0.00000170
  144.000   0.00000173
  144.200   0.00000176
  144.400   0.00000179
  144.600   0.00000181
  144.800   0.00000183
  145.000   0.00000184
  145.200   0.00000184
  145.400   0.00000182
  145.600   0.00000178
  145.800   0.00000172
  146.000   0.00000166
  146.200   0.00000159
  146.400   0.00000152
  146.600   0.00000145
  146.800   0.00000139
  147.000   0.00000134
  147.200   0.00000129
  147.400   0.00000126
  147.600   0.00000124
  147.800   0.00000123
  148.000   0.00000122
  148.200   0.00000123
  148.400   0.00000123
  148.600   0.00000123
  148.800   0.00000123
  149.000   0.00000122
  149.200   0.00000119
  149.400   0.00000116
  149.600   0.00000111
  149.800   0.00000105
  150.000   0.00000099
  150.200   0.00000094
  150.400   0.00000089
  150.600   0.00000085
  150.800   0.00000082
  151.000   0.00000080
  151.200   0.00000080
  151.400   0.00000080
  151.600   0.00000081
  151.800   0.00000083
  152.000   0.00000086
  152.200   0.00000090
  152.400   0.00000094
  152.600   0.00000098
  152.800   0.00000102
  153.000   0.00000105
  153.200   0.00000108
  153.400   0.00000109
  153.600   0.00000110
  153.800   0.00000110
  154.000   0.00000110
  154.200   0.00000110
  154.400   0.00000109
  154.600   0.00000110
  154.800   0.00000111
  155.000   0.00000112
  155.200   0.00000114
  155.400   0.00000117
  155.600   0.00000120
  155.800   0.00000124
  156.000   0.00000129
  156.200   0.00000135
  156.400   0.00000141
  156.600   0.00000147
  156.800   0.00000153
  157.000   0.00000158
  157.200   0.00000162
  157.400   0.00000165
  157.600   0.00000165
  157.800   0.00000164
  158.000   0.00000162
  158.200   0.00000158
  158.400   0.00000155
  158.600   0.00000151
  158.800   0.00000149
  159.000   0.00000147
  159.200   0.00000146
  159.400   0.00000146
  159.600   0.00000147
  159.800   0.00000150
  160.000   0.00000154
  160.200   0.00000159
  160.400   0.00000165
  160.600   0.00000171
  160.800   0.00000177
  161.000   0.00000182
  161.200   0.00000184
  161.400   0.00000184
  161.600   0.00000181
  161.800   0.00000175
  162.000   0.00000168
  162.200   0.00000159
  162.400   0.00000150
  162.600   0.00000142
  162.800   0.00000134
  163.000   0.00000128
  163.200   0.00000124
  163.400   0.00000121
  163.600   0.00000121
  163.800   0.00000122
  164.000   0.00000125
  164.200   0.00000130
  164.400   0.00000136
  164.600   0.00000143
  164.800   0.00000148
  165.000   0.00000153
  165.200   0.00000154
  165.400   0.00000153
  165.600   0.00000149
  165.800   0.00000141
  166.000   0.00000132
  166.200   0.00000121
  166.400   0.00000110
  166.600   0.00000100
  166.800   0.00000091
  167.000   0.00000084
  167.200   0.00000078
  167.400   0.00000076
  167.600   0.00000075
  167.800   0.00000076
  168.000   0.00000079
  168.200   0.00000084
  168.400   0.00000091
  168.600   0.00000098
  168.800   0.00000104
  169.000   0.00000110
  169.200   0.00000113
  169.400   0.00000112
  169.600   0.00000109
  169.800   0.00000102
  170.000   0.00000093
  170.200   0.00000083
  170.400   0.00000072
  170.600   0.00000062
  170.800   0.00000054
  171.000   0.00000048
  171.200   0.00000044
  171.400   0.00000041
  171.600   0.00000041
  171.800   0.00000042
  172.000   0.00000046
  172.200   0.00000051
  172.400   0.00000058
  172.600   0.00000066
  172.800   0.00000074
  173.000   0.00000081
  173.200   0.00000087
  173.400   0.00000088
  173.600   0.00000086
  173.800   0.00000081
  174.000   0.00000072
  174.200   0.00000062
  174.400   0.00000051
  174.600   0.00000042
  174.800   0.00000034
  175.000   0.00000029
  175.200   0.00000026
  175.400   0.00000024
  175.600   0.00000024
  175.800   0.00000025
  176.000   0.00000028
  176.200   0.00000033
  176.400   0.00000041
  176.600   0.00000052
  176.800   0.00000065
  177.000   0.00000078
  177.200   0.00000089
  177.400   0.00000096
  177.600   0.00000097
  177.800   0.00000091
  178.000   0.00000079
  178.200   0.00000062
  178.400   0.00000045
  178.600   0.00000031
  178.800   0.00000021
  179.000   0.00000019
  179.200   0.00000022
  179.400   0.00000030
  179.600   0.00000039
  179.800   0.00000046
  180.000   0.00000049
